# f(Hz)	 Electron noise power spectrum density (V^2/Hz)
4.0876e+03 1.0149e-14
4.2686e+03 1.0149e-14
4.4575e+03 1.0149e-14
4.6549e+03 1.0149e-14
4.8610e+03 1.0148e-14
5.0762e+03 1.0148e-14
5.3009e+03 1.0148e-14
5.5356e+03 1.0148e-14
5.7807e+03 1.0148e-14
6.0367e+03 1.0148e-14
6.3039e+03 1.0148e-14
6.5830e+03 1.0148e-14
6.8745e+03 1.0148e-14
7.1788e+03 1.0147e-14
7.4967e+03 1.0147e-14
7.8286e+03 1.0147e-14
8.1752e+03 1.0147e-14
8.5371e+03 1.0147e-14
8.9151e+03 1.0147e-14
9.3098e+03 1.0146e-14
9.7220e+03 1.0146e-14
1.0152e+04 1.0146e-14
1.0602e+04 1.0146e-14
1.1071e+04 1.0145e-14
1.1561e+04 1.0145e-14
1.2073e+04 1.0145e-14
1.2608e+04 1.0145e-14
1.3166e+04 1.0145e-14
1.3749e+04 1.0144e-14
1.4358e+04 1.0144e-14
1.4993e+04 1.0144e-14
1.5657e+04 1.0144e-14
1.6350e+04 1.0145e-14
1.7074e+04 1.0145e-14
1.7830e+04 1.0146e-14
1.8620e+04 1.0147e-14
1.9444e+04 1.0148e-14
2.0305e+04 1.0150e-14
2.1204e+04 1.0152e-14
2.2143e+04 1.0155e-14
2.3123e+04 1.0158e-14
2.4147e+04 1.0163e-14
2.5216e+04 1.0169e-14
2.6332e+04 1.0177e-14
2.7498e+04 1.0187e-14
2.8715e+04 1.0199e-14
2.9987e+04 1.0214e-14
3.1314e+04 1.0232e-14
3.2701e+04 1.0255e-14
3.4148e+04 1.0283e-14
3.5660e+04 1.0318e-14
3.7239e+04 1.0361e-14
3.8888e+04 1.0415e-14
4.0610e+04 1.0481e-14
4.2408e+04 1.0564e-14
4.4285e+04 1.0668e-14
4.6246e+04 1.0800e-14
4.8293e+04 1.0968e-14
5.0431e+04 1.1188e-14
5.2664e+04 1.1480e-14
5.4996e+04 1.1884e-14
5.7431e+04 1.2472e-14
5.9973e+04 1.3408e-14
6.2629e+04 1.5170e-14
6.5401e+04 2.0295e-14
6.8297e+04 6.5427e-13
7.1321e+04 3.7813e-13
7.4478e+04 1.3872e-13
7.7776e+04 6.5209e-14
8.1219e+04 4.0780e-14
8.4815e+04 2.8884e-14
8.8570e+04 2.1777e-14
9.2492e+04 1.7041e-14
9.6587e+04 1.3669e-14
1.0086e+05 1.1159e-14
1.0533e+05 9.2288e-15
1.0999e+05 7.7067e-15
1.1486e+05 6.4830e-15
1.1995e+05 5.4846e-15
1.2526e+05 4.6611e-15
1.3080e+05 3.9762e-15
1.3659e+05 3.4028e-15
1.4264e+05 2.9203e-15
1.4896e+05 2.5125e-15
1.5555e+05 2.1663e-15
1.6244e+05 1.8716e-15
1.6963e+05 1.6197e-15
1.7714e+05 1.4039e-15
1.8498e+05 1.2185e-15
1.9317e+05 1.0589e-15
2.0173e+05 9.2115e-16
2.1066e+05 8.0209e-16
2.1998e+05 6.9902e-16
2.2972e+05 6.0966e-16
2.3989e+05 5.3209e-16
2.5051e+05 4.6467e-16
