# f(Hz)	 Electron noise power spectrum density (V^2/Hz)
4.0876e+03 1.4849e-14
4.2686e+03 1.4851e-14
4.4575e+03 1.4853e-14
4.6549e+03 1.4855e-14
4.8610e+03 1.4857e-14
5.0762e+03 1.4860e-14
5.3009e+03 1.4862e-14
5.5356e+03 1.4865e-14
5.7807e+03 1.4869e-14
6.0367e+03 1.4872e-14
6.3039e+03 1.4876e-14
6.5830e+03 1.4880e-14
6.8745e+03 1.4885e-14
7.1788e+03 1.4890e-14
7.4967e+03 1.4896e-14
7.8286e+03 1.4902e-14
8.1752e+03 1.4909e-14
8.5371e+03 1.4916e-14
8.9151e+03 1.4925e-14
9.3098e+03 1.4934e-14
9.7220e+03 1.4943e-14
1.0152e+04 1.4954e-14
1.0602e+04 1.4967e-14
1.1071e+04 1.4980e-14
1.1561e+04 1.4995e-14
1.2073e+04 1.5011e-14
1.2608e+04 1.5029e-14
1.3166e+04 1.5049e-14
1.3749e+04 1.5072e-14
1.4358e+04 1.5097e-14
1.4993e+04 1.5125e-14
1.5657e+04 1.5156e-14
1.6350e+04 1.5191e-14
1.7074e+04 1.5230e-14
1.7830e+04 1.5275e-14
1.8620e+04 1.5325e-14
1.9444e+04 1.5382e-14
2.0305e+04 1.5447e-14
2.1204e+04 1.5522e-14
2.2143e+04 1.5608e-14
2.3123e+04 1.5707e-14
2.4147e+04 1.5822e-14
2.5216e+04 1.5957e-14
2.6332e+04 1.6117e-14
2.7498e+04 1.6306e-14
2.8715e+04 1.6535e-14
2.9987e+04 1.6814e-14
3.1314e+04 1.7160e-14
3.2701e+04 1.7600e-14
3.4148e+04 1.8174e-14
3.5660e+04 1.8955e-14
3.7239e+04 2.0084e-14
3.8888e+04 2.1882e-14
4.0610e+04 2.5327e-14
4.2408e+04 3.6249e-14
4.4285e+04 2.9302e-13
4.6246e+04 2.2641e-13
4.8293e+04 1.3840e-13
5.0431e+04 8.7530e-14
5.2664e+04 6.1926e-14
5.4996e+04 4.6811e-14
5.7431e+04 3.6646e-14
5.9973e+04 2.9290e-14
6.2629e+04 2.3750e-14
6.5401e+04 1.9475e-14
6.8297e+04 1.6118e-14
7.1321e+04 1.3446e-14
7.4478e+04 1.1294e-14
7.7776e+04 9.5442e-15
8.1219e+04 8.1071e-15
8.4815e+04 6.9173e-15
8.8570e+04 5.9251e-15
9.2492e+04 5.0919e-15
9.6587e+04 4.3883e-15
1.0086e+05 3.7910e-15
1.0533e+05 3.2816e-15
1.0999e+05 2.8455e-15
1.1486e+05 2.4708e-15
1.1995e+05 2.1482e-15
1.2526e+05 1.8696e-15
1.3080e+05 1.6286e-15
1.3659e+05 1.4199e-15
1.4264e+05 1.2388e-15
1.4896e+05 1.0815e-15
1.5555e+05 9.4474e-16
1.6244e+05 8.2574e-16
1.6963e+05 7.2210e-16
1.7714e+05 6.3176e-16
1.8498e+05 5.5296e-16
1.9317e+05 4.8418e-16
2.0173e+05 4.2410e-16
2.1066e+05 3.7159e-16
2.1998e+05 3.2568e-16
2.2972e+05 2.8551e-16
2.3989e+05 2.5035e-16
2.5051e+05 2.1956e-16
