# f(Hz)	 Electron noise power spectrum density (V^2/Hz)
4.0876e+03 1.4603e-14
4.2686e+03 1.4605e-14
4.4575e+03 1.4606e-14
4.6549e+03 1.4608e-14
4.8610e+03 1.4610e-14
5.0762e+03 1.4612e-14
5.3009e+03 1.4614e-14
5.5356e+03 1.4617e-14
5.7807e+03 1.4620e-14
6.0367e+03 1.4623e-14
6.3039e+03 1.4626e-14
6.5830e+03 1.4630e-14
6.8745e+03 1.4634e-14
7.1788e+03 1.4638e-14
7.4967e+03 1.4643e-14
7.8286e+03 1.4648e-14
8.1752e+03 1.4654e-14
8.5371e+03 1.4660e-14
8.9151e+03 1.4667e-14
9.3098e+03 1.4674e-14
9.7220e+03 1.4683e-14
1.0152e+04 1.4692e-14
1.0602e+04 1.4702e-14
1.1071e+04 1.4713e-14
1.1561e+04 1.4726e-14
1.2073e+04 1.4739e-14
1.2608e+04 1.4755e-14
1.3166e+04 1.4771e-14
1.3749e+04 1.4790e-14
1.4358e+04 1.4811e-14
1.4993e+04 1.4834e-14
1.5657e+04 1.4860e-14
1.6350e+04 1.4889e-14
1.7074e+04 1.4922e-14
1.7830e+04 1.4959e-14
1.8620e+04 1.5000e-14
1.9444e+04 1.5047e-14
2.0305e+04 1.5100e-14
2.1204e+04 1.5161e-14
2.2143e+04 1.5231e-14
2.3123e+04 1.5312e-14
2.4147e+04 1.5404e-14
2.5216e+04 1.5513e-14
2.6332e+04 1.5639e-14
2.7498e+04 1.5789e-14
2.8715e+04 1.5967e-14
2.9987e+04 1.6182e-14
3.1314e+04 1.6443e-14
3.2701e+04 1.6768e-14
3.4148e+04 1.7180e-14
3.5660e+04 1.7717e-14
3.7239e+04 1.8445e-14
3.8888e+04 1.9495e-14
4.0610e+04 2.1164e-14
4.2408e+04 2.4368e-14
4.4285e+04 8.3985e-13
4.6246e+04 3.0324e-13
4.8293e+04 2.2727e-13
5.0431e+04 1.3204e-13
5.2664e+04 8.2607e-14
5.4996e+04 5.8517e-14
5.7431e+04 4.4273e-14
5.9973e+04 3.4651e-14
6.2629e+04 2.7679e-14
6.5401e+04 2.2433e-14
6.8297e+04 1.8392e-14
7.1321e+04 1.5223e-14
7.4478e+04 1.2704e-14
7.7776e+04 1.0676e-14
8.1219e+04 9.0269e-15
8.4815e+04 7.6722e-15
8.8570e+04 6.5500e-15
9.2492e+04 5.6133e-15
9.6587e+04 4.8262e-15
1.0086e+05 4.1608e-15
1.0533e+05 3.5954e-15
1.0999e+05 3.1129e-15
1.1486e+05 2.6995e-15
1.1995e+05 2.3442e-15
1.2526e+05 2.0381e-15
1.3080e+05 1.7737e-15
1.3659e+05 1.5451e-15
1.4264e+05 1.3470e-15
1.4896e+05 1.1752e-15
1.5555e+05 1.0259e-15
1.6244e+05 8.9622e-16
1.6963e+05 7.8333e-16
1.7714e+05 6.8501e-16
1.8498e+05 5.9931e-16
1.9317e+05 5.2456e-16
2.0173e+05 4.5931e-16
2.1066e+05 4.0231e-16
2.1998e+05 3.5250e-16
2.2972e+05 3.0893e-16
2.3989e+05 2.7082e-16
2.5051e+05 2.3746e-16
