# f(Hz)	 Electron noise power spectrum density (V^2/Hz)
4.0876e+03 1.5936e-14
4.2686e+03 1.5942e-14
4.4575e+03 1.5948e-14
4.6549e+03 1.5954e-14
4.8610e+03 1.5961e-14
5.0762e+03 1.5969e-14
5.3009e+03 1.5977e-14
5.5356e+03 1.5986e-14
5.7807e+03 1.5996e-14
6.0367e+03 1.6007e-14
6.3039e+03 1.6019e-14
6.5830e+03 1.6033e-14
6.8745e+03 1.6047e-14
7.1788e+03 1.6063e-14
7.4967e+03 1.6081e-14
7.8286e+03 1.6101e-14
8.1752e+03 1.6122e-14
8.5371e+03 1.6146e-14
8.9151e+03 1.6172e-14
9.3098e+03 1.6201e-14
9.7220e+03 1.6233e-14
1.0152e+04 1.6269e-14
1.0602e+04 1.6308e-14
1.1071e+04 1.6353e-14
1.1561e+04 1.6402e-14
1.2073e+04 1.6457e-14
1.2608e+04 1.6519e-14
1.3166e+04 1.6589e-14
1.3749e+04 1.6667e-14
1.4358e+04 1.6757e-14
1.4993e+04 1.6858e-14
1.5657e+04 1.6975e-14
1.6350e+04 1.7109e-14
1.7074e+04 1.7264e-14
1.7830e+04 1.7446e-14
1.8620e+04 1.7660e-14
1.9444e+04 1.7916e-14
2.0305e+04 1.8228e-14
2.1204e+04 1.8613e-14
2.2143e+04 1.9104e-14
2.3123e+04 1.9754e-14
2.4147e+04 2.0666e-14
2.5216e+04 2.2083e-14
2.6332e+04 2.4795e-14
2.7498e+04 2.7791e-13
2.8715e+04 1.6270e-13
2.9987e+04 1.2373e-13
3.1314e+04 8.5416e-14
3.2701e+04 6.2930e-14
3.4148e+04 5.0064e-14
3.5660e+04 4.1422e-14
3.7239e+04 3.4871e-14
3.8888e+04 2.9582e-14
4.0610e+04 2.5182e-14
4.2408e+04 2.1475e-14
4.4285e+04 1.8337e-14
4.6246e+04 1.5674e-14
4.8293e+04 1.3415e-14
5.0431e+04 1.1498e-14
5.2664e+04 9.8698e-15
5.4996e+04 8.4867e-15
5.7431e+04 7.3103e-15
5.9973e+04 6.3082e-15
6.2629e+04 5.4533e-15
6.5401e+04 4.7223e-15
6.8297e+04 4.0961e-15
7.1321e+04 3.5583e-15
7.4478e+04 3.0956e-15
7.7776e+04 2.6965e-15
8.1219e+04 2.3515e-15
8.4815e+04 2.0527e-15
8.8570e+04 1.7935e-15
9.2492e+04 1.5681e-15
9.6587e+04 1.3720e-15
1.0086e+05 1.2010e-15
1.0533e+05 1.0518e-15
1.0999e+05 9.2144e-16
1.1486e+05 8.0751e-16
1.1995e+05 7.0784e-16
1.2526e+05 6.2063e-16
1.3080e+05 5.4427e-16
1.3659e+05 4.7739e-16
1.4264e+05 4.1881e-16
1.4896e+05 3.6747e-16
1.5555e+05 3.2248e-16
1.6244e+05 2.8304e-16
1.6963e+05 2.4846e-16
1.7714e+05 2.1813e-16
1.8498e+05 1.9152e-16
1.9317e+05 1.6818e-16
2.0173e+05 1.4769e-16
2.1066e+05 1.2971e-16
2.1998e+05 1.1393e-16
2.2972e+05 1.0007e-16
2.3989e+05 8.7903e-17
2.5051e+05 7.7217e-17
