# f(Hz)	 Electron noise power spectrum density (V^2/Hz)
4.0876e+03 1.0628e-14
4.2686e+03 1.0628e-14
4.4575e+03 1.0629e-14
4.6549e+03 1.0629e-14
4.8610e+03 1.0630e-14
5.0762e+03 1.0631e-14
5.3009e+03 1.0632e-14
5.5356e+03 1.0633e-14
5.7807e+03 1.0634e-14
6.0367e+03 1.0635e-14
6.3039e+03 1.0636e-14
6.5830e+03 1.0638e-14
6.8745e+03 1.0639e-14
7.1788e+03 1.0641e-14
7.4967e+03 1.0643e-14
7.8286e+03 1.0645e-14
8.1752e+03 1.0647e-14
8.5371e+03 1.0650e-14
8.9151e+03 1.0653e-14
9.3098e+03 1.0656e-14
9.7220e+03 1.0659e-14
1.0152e+04 1.0663e-14
1.0602e+04 1.0667e-14
1.1071e+04 1.0672e-14
1.1561e+04 1.0677e-14
1.2073e+04 1.0683e-14
1.2608e+04 1.0690e-14
1.3166e+04 1.0697e-14
1.3749e+04 1.0706e-14
1.4358e+04 1.0715e-14
1.4993e+04 1.0726e-14
1.5657e+04 1.0738e-14
1.6350e+04 1.0752e-14
1.7074e+04 1.0768e-14
1.7830e+04 1.0786e-14
1.8620e+04 1.0807e-14
1.9444e+04 1.0831e-14
2.0305e+04 1.0858e-14
2.1204e+04 1.0891e-14
2.2143e+04 1.0928e-14
2.3123e+04 1.0971e-14
2.4147e+04 1.1023e-14
2.5216e+04 1.1083e-14
2.6332e+04 1.1155e-14
2.7498e+04 1.1241e-14
2.8715e+04 1.1344e-14
2.9987e+04 1.1469e-14
3.1314e+04 1.1622e-14
3.2701e+04 1.1812e-14
3.4148e+04 1.2052e-14
3.5660e+04 1.2360e-14
3.7239e+04 1.2767e-14
3.8888e+04 1.3324e-14
4.0610e+04 1.4126e-14
4.2408e+04 1.5375e-14
4.4285e+04 1.7598e-14
4.6246e+04 2.2767e-14
4.8293e+04 5.7036e-13
5.0431e+04 3.6680e-13
5.2664e+04 2.2151e-13
5.4996e+04 1.1247e-13
5.7431e+04 6.5261e-14
5.9973e+04 4.3459e-14
6.2629e+04 3.1366e-14
6.5401e+04 2.3761e-14
6.8297e+04 1.8587e-14
7.1321e+04 1.4876e-14
7.4478e+04 1.2110e-14
7.7776e+04 9.9887e-15
8.1219e+04 8.3241e-15
8.4815e+04 6.9937e-15
8.8570e+04 5.9145e-15
9.2492e+04 5.0282e-15
9.6587e+04 4.2929e-15
1.0086e+05 3.6778e-15
1.0533e+05 3.1598e-15
1.0999e+05 2.7213e-15
1.1486e+05 2.3486e-15
1.1995e+05 2.0306e-15
1.2526e+05 1.7584e-15
1.3080e+05 1.5249e-15
1.3659e+05 1.3242e-15
1.4264e+05 1.1512e-15
1.4896e+05 1.0018e-15
1.5555e+05 8.7270e-16
1.6244e+05 7.6085e-16
1.6963e+05 6.6384e-16
1.7714e+05 5.7959e-16
1.8498e+05 5.0634e-16
1.9317e+05 4.4259e-16
2.0173e+05 3.8706e-16
2.1066e+05 3.3864e-16
2.1998e+05 2.9640e-16
2.2972e+05 2.5951e-16
2.3989e+05 2.2729e-16
2.5051e+05 1.9913e-16
