# f(Hz)	 Electron noise power spectrum density (V^2/Hz)
4.0876e+03 1.1039e-15
4.2686e+03 1.1031e-15
4.4575e+03 1.1023e-15
4.6549e+03 1.1014e-15
4.8610e+03 1.1005e-15
5.0762e+03 1.0994e-15
5.3009e+03 1.0983e-15
5.5356e+03 1.0972e-15
5.7807e+03 1.0959e-15
6.0367e+03 1.0945e-15
6.3039e+03 1.0931e-15
6.5830e+03 1.0915e-15
6.8745e+03 1.0899e-15
7.1788e+03 1.0882e-15
7.4967e+03 1.0864e-15
7.8286e+03 1.0844e-15
8.1752e+03 1.0824e-15
8.5371e+03 1.0803e-15
8.9151e+03 1.0782e-15
9.3098e+03 1.0759e-15
9.7220e+03 1.0736e-15
1.0152e+04 1.0713e-15
1.0602e+04 1.0690e-15
1.1071e+04 1.0666e-15
1.1561e+04 1.0643e-15
1.2073e+04 1.0621e-15
1.2608e+04 1.0600e-15
1.3166e+04 1.0581e-15
1.3749e+04 1.0564e-15
1.4358e+04 1.0551e-15
1.4993e+04 1.0541e-15
1.5657e+04 1.0537e-15
1.6350e+04 1.0539e-15
1.7074e+04 1.0548e-15
1.7830e+04 1.0568e-15
1.8620e+04 1.0599e-15
1.9444e+04 1.0645e-15
2.0305e+04 1.0709e-15
2.1204e+04 1.0795e-15
2.2143e+04 1.0910e-15
2.3123e+04 1.1060e-15
2.4147e+04 1.1256e-15
2.5216e+04 1.1512e-15
2.6332e+04 1.1848e-15
2.7498e+04 1.2294e-15
2.8715e+04 1.2895e-15
2.9987e+04 1.3725e-15
3.1314e+04 1.4906e-15
3.2701e+04 1.6662e-15
3.4148e+04 1.9436e-15
3.5660e+04 2.4219e-15
3.7239e+04 3.3641e-15
3.8888e+04 5.6891e-15
4.0610e+04 1.4862e-14
4.2408e+04 3.4832e-13
4.4285e+04 7.5654e-13
4.6246e+04 1.1547e-13
4.8293e+04 1.6342e-14
5.0431e+04 7.3447e-15
5.2664e+04 4.6097e-15
5.4996e+04 3.2627e-15
5.7431e+04 2.4500e-15
5.9973e+04 1.9044e-15
6.2629e+04 1.5151e-15
6.5401e+04 1.2260e-15
6.8297e+04 1.0051e-15
7.1321e+04 8.3233e-16
7.4478e+04 6.9487e-16
7.7776e+04 5.8396e-16
8.1219e+04 4.9345e-16
8.4815e+04 4.1890e-16
8.8570e+04 3.5701e-16
9.2492e+04 3.0530e-16
9.6587e+04 2.6183e-16
1.0086e+05 2.2512e-16
1.0533e+05 1.9399e-16
1.0999e+05 1.6749e-16
1.1486e+05 1.4486e-16
1.1995e+05 1.2548e-16
1.2526e+05 1.0884e-16
1.3080e+05 9.4520e-17
1.3659e+05 8.2174e-17
1.4264e+05 7.1510e-17
1.4896e+05 6.2285e-17
1.5555e+05 5.4293e-17
1.6244e+05 4.7360e-17
1.6963e+05 4.1339e-17
1.7714e+05 3.6104e-17
1.8498e+05 3.1549e-17
1.9317e+05 2.7581e-17
2.0173e+05 2.4123e-17
2.1066e+05 2.1107e-17
2.1998e+05 1.8474e-17
2.2972e+05 1.6175e-17
2.3989e+05 1.4166e-17
2.5051e+05 1.2409e-17
