# f(Hz)	 Electron noise power spectrum density (V^2/Hz)
4.0876e+03 1.2872e-14
4.2686e+03 1.2876e-14
4.4575e+03 1.2880e-14
4.6549e+03 1.2885e-14
4.8610e+03 1.2890e-14
5.0762e+03 1.2896e-14
5.3009e+03 1.2903e-14
5.5356e+03 1.2910e-14
5.7807e+03 1.2918e-14
6.0367e+03 1.2926e-14
6.3039e+03 1.2935e-14
6.5830e+03 1.2946e-14
6.8745e+03 1.2957e-14
7.1788e+03 1.2970e-14
7.4967e+03 1.2984e-14
7.8286e+03 1.2999e-14
8.1752e+03 1.3016e-14
8.5371e+03 1.3035e-14
8.9151e+03 1.3056e-14
9.3098e+03 1.3079e-14
9.7220e+03 1.3105e-14
1.0152e+04 1.3134e-14
1.0602e+04 1.3166e-14
1.1071e+04 1.3202e-14
1.1561e+04 1.3243e-14
1.2073e+04 1.3289e-14
1.2608e+04 1.3340e-14
1.3166e+04 1.3399e-14
1.3749e+04 1.3465e-14
1.4358e+04 1.3541e-14
1.4993e+04 1.3628e-14
1.5657e+04 1.3728e-14
1.6350e+04 1.3843e-14
1.7074e+04 1.3978e-14
1.7830e+04 1.4137e-14
1.8620e+04 1.4325e-14
1.9444e+04 1.4549e-14
2.0305e+04 1.4822e-14
2.1204e+04 1.5156e-14
2.2143e+04 1.5575e-14
2.3123e+04 1.6113e-14
2.4147e+04 1.6824e-14
2.5216e+04 1.7807e-14
2.6332e+04 1.9250e-14
2.7498e+04 2.1584e-14
2.8715e+04 2.6066e-14
2.9987e+04 3.9531e-14
3.1314e+04 2.0667e-13
3.2701e+04 1.5997e-13
3.4148e+04 1.1533e-13
3.5660e+04 8.1789e-14
3.7239e+04 6.0326e-14
3.8888e+04 4.6299e-14
4.0610e+04 3.6533e-14
4.2408e+04 2.9366e-14
4.4285e+04 2.3917e-14
4.6246e+04 1.9676e-14
4.8293e+04 1.6319e-14
5.0431e+04 1.3629e-14
5.2664e+04 1.1452e-14
5.4996e+04 9.6750e-15
5.7431e+04 8.2128e-15
5.9973e+04 7.0011e-15
6.2629e+04 5.9906e-15
6.5401e+04 5.1429e-15
6.8297e+04 4.4279e-15
7.1321e+04 3.8219e-15
7.4478e+04 3.3061e-15
7.7776e+04 2.8652e-15
8.1219e+04 2.4871e-15
8.4815e+04 2.1618e-15
8.8570e+04 1.8813e-15
9.2492e+04 1.6388e-15
9.6587e+04 1.4288e-15
1.0086e+05 1.2467e-15
1.0533e+05 1.0885e-15
1.0999e+05 9.5090e-16
1.1486e+05 8.3117e-16
1.1995e+05 7.2688e-16
1.2526e+05 6.3596e-16
1.3080e+05 5.5665e-16
1.3659e+05 4.8742e-16
1.4264e+05 4.2696e-16
1.4896e+05 3.7412e-16
1.5555e+05 3.2791e-16
1.6244e+05 2.8749e-16
1.6963e+05 2.5212e-16
1.7714e+05 2.2114e-16
1.8498e+05 1.9401e-16
1.9317e+05 1.7023e-16
2.0173e+05 1.4939e-16
2.1066e+05 1.3112e-16
2.1998e+05 1.1510e-16
2.2972e+05 1.0104e-16
2.3989e+05 8.8714e-17
2.5051e+05 7.7894e-17
