# f(Hz)	 Electron noise power spectrum density (V^2/Hz)
4.0876e+03 1.2673e-14
4.2686e+03 1.2674e-14
4.4575e+03 1.2674e-14
4.6549e+03 1.2675e-14
4.8610e+03 1.2676e-14
5.0762e+03 1.2678e-14
5.3009e+03 1.2679e-14
5.5356e+03 1.2680e-14
5.7807e+03 1.2682e-14
6.0367e+03 1.2683e-14
6.3039e+03 1.2685e-14
6.5830e+03 1.2687e-14
6.8745e+03 1.2689e-14
7.1788e+03 1.2692e-14
7.4967e+03 1.2694e-14
7.8286e+03 1.2697e-14
8.1752e+03 1.2700e-14
8.5371e+03 1.2704e-14
8.9151e+03 1.2707e-14
9.3098e+03 1.2711e-14
9.7220e+03 1.2716e-14
1.0152e+04 1.2721e-14
1.0602e+04 1.2726e-14
1.1071e+04 1.2732e-14
1.1561e+04 1.2739e-14
1.2073e+04 1.2747e-14
1.2608e+04 1.2755e-14
1.3166e+04 1.2764e-14
1.3749e+04 1.2774e-14
1.4358e+04 1.2786e-14
1.4993e+04 1.2798e-14
1.5657e+04 1.2812e-14
1.6350e+04 1.2828e-14
1.7074e+04 1.2846e-14
1.7830e+04 1.2867e-14
1.8620e+04 1.2889e-14
1.9444e+04 1.2915e-14
2.0305e+04 1.2945e-14
2.1204e+04 1.2979e-14
2.2143e+04 1.3017e-14
2.3123e+04 1.3062e-14
2.4147e+04 1.3113e-14
2.5216e+04 1.3173e-14
2.6332e+04 1.3242e-14
2.7498e+04 1.3324e-14
2.8715e+04 1.3421e-14
2.9987e+04 1.3535e-14
3.1314e+04 1.3673e-14
3.2701e+04 1.3840e-14
3.4148e+04 1.4045e-14
3.5660e+04 1.4302e-14
3.7239e+04 1.4628e-14
3.8888e+04 1.5056e-14
4.0610e+04 1.5642e-14
4.2408e+04 1.6493e-14
4.4285e+04 1.7872e-14
4.6246e+04 2.0670e-14
4.8293e+04 5.4547e-13
5.0431e+04 3.5932e-13
5.2664e+04 2.1854e-13
5.4996e+04 1.0600e-13
5.7431e+04 6.4794e-14
5.9973e+04 4.5828e-14
6.2629e+04 3.4527e-14
6.5401e+04 2.6892e-14
6.8297e+04 2.1410e-14
7.1321e+04 1.7328e-14
7.4478e+04 1.4210e-14
7.7776e+04 1.1778e-14
8.1219e+04 9.8493e-15
8.4815e+04 8.2966e-15
8.8570e+04 7.0313e-15
9.2492e+04 5.9890e-15
9.6587e+04 5.1226e-15
1.0086e+05 4.3967e-15
1.0533e+05 3.7843e-15
1.0999e+05 3.2649e-15
1.1486e+05 2.8224e-15
1.1995e+05 2.4439e-15
1.2526e+05 2.1192e-15
1.3080e+05 1.8400e-15
1.3659e+05 1.5994e-15
1.4264e+05 1.3917e-15
1.4896e+05 1.2120e-15
1.5555e+05 1.0565e-15
1.6244e+05 9.2160e-16
1.6963e+05 8.0450e-16
1.7714e+05 7.0272e-16
1.8498e+05 6.1417e-16
1.9317e+05 5.3705e-16
2.0173e+05 4.6983e-16
2.1066e+05 4.1119e-16
2.1998e+05 3.6001e-16
2.2972e+05 3.1530e-16
2.3989e+05 2.7622e-16
2.5051e+05 2.4205e-16
