# f(Hz)	 Electron noise power spectrum density (V^2/Hz)
4.0876e+03 7.7834e-15
4.2686e+03 7.7915e-15
4.4575e+03 7.8005e-15
4.6549e+03 7.8106e-15
4.8610e+03 7.8219e-15
5.0762e+03 7.8344e-15
5.3009e+03 7.8486e-15
5.5356e+03 7.8645e-15
5.7807e+03 7.8824e-15
6.0367e+03 7.9026e-15
6.3039e+03 7.9256e-15
6.5830e+03 7.9516e-15
6.8745e+03 7.9814e-15
7.1788e+03 8.0155e-15
7.4967e+03 8.0548e-15
7.8286e+03 8.1001e-15
8.1752e+03 8.1528e-15
8.5371e+03 8.2143e-15
8.9151e+03 8.2866e-15
9.3098e+03 8.3722e-15
9.7220e+03 8.4743e-15
1.0152e+04 8.5972e-15
1.0602e+04 8.7467e-15
1.1071e+04 8.9308e-15
1.1561e+04 9.1608e-15
1.2073e+04 9.4531e-15
1.2608e+04 9.8324e-15
1.3166e+04 1.0337e-14
1.3749e+04 1.1031e-14
1.4358e+04 1.2024e-14
1.4993e+04 1.3527e-14
1.5657e+04 1.5979e-14
1.6350e+04 2.0441e-14
1.7074e+04 3.0049e-14
1.7830e+04 5.7631e-14
1.8620e+04 2.5276e-13
1.9444e+04 2.0794e-13
2.0305e+04 1.4536e-13
2.1204e+04 9.3179e-14
2.2143e+04 6.2117e-14
2.3123e+04 4.4203e-14
2.4147e+04 3.3117e-14
2.5216e+04 2.5714e-14
2.6332e+04 2.0468e-14
2.7498e+04 1.6590e-14
2.8715e+04 1.3633e-14
2.9987e+04 1.1328e-14
3.1314e+04 9.4980e-15
3.2701e+04 8.0244e-15
3.4148e+04 6.8234e-15
3.5660e+04 5.8342e-15
3.7239e+04 5.0121e-15
3.8888e+04 4.3232e-15
4.0610e+04 3.7418e-15
4.2408e+04 3.2480e-15
4.4285e+04 2.8262e-15
4.6246e+04 2.4642e-15
4.8293e+04 2.1522e-15
5.0431e+04 1.8822e-15
5.2664e+04 1.6478e-15
5.4996e+04 1.4439e-15
5.7431e+04 1.2660e-15
5.9973e+04 1.1107e-15
6.2629e+04 9.7472e-16
6.5401e+04 8.5565e-16
6.8297e+04 7.5129e-16
7.1321e+04 6.5974e-16
7.4478e+04 5.7941e-16
7.7776e+04 5.0889e-16
8.1219e+04 4.4697e-16
8.4815e+04 3.9259e-16
8.8570e+04 3.4483e-16
9.2492e+04 3.0289e-16
9.6587e+04 2.6605e-16
1.0086e+05 2.3369e-16
1.0533e+05 2.0528e-16
1.0999e+05 1.8032e-16
1.1486e+05 1.5840e-16
1.1995e+05 1.3915e-16
1.2526e+05 1.2225e-16
1.3080e+05 1.0740e-16
1.3659e+05 9.4365e-17
1.4264e+05 8.2915e-17
1.4896e+05 7.2859e-17
1.5555e+05 6.4027e-17
1.6244e+05 5.6268e-17
1.6963e+05 4.9452e-17
1.7714e+05 4.3463e-17
1.8498e+05 3.8201e-17
1.9317e+05 3.3577e-17
2.0173e+05 2.9514e-17
2.1066e+05 2.5942e-17
2.1998e+05 2.2803e-17
2.2972e+05 2.0044e-17
2.3989e+05 1.7619e-17
2.5051e+05 1.5486e-17
