# f(Hz)	 Electron noise power spectrum density (V^2/Hz)
4.0876e+03 1.3911e-14
4.2686e+03 1.3916e-14
4.4575e+03 1.3922e-14
4.6549e+03 1.3928e-14
4.8610e+03 1.3935e-14
5.0762e+03 1.3943e-14
5.3009e+03 1.3951e-14
5.5356e+03 1.3960e-14
5.7807e+03 1.3970e-14
6.0367e+03 1.3981e-14
6.3039e+03 1.3993e-14
6.5830e+03 1.4006e-14
6.8745e+03 1.4021e-14
7.1788e+03 1.4037e-14
7.4967e+03 1.4055e-14
7.8286e+03 1.4075e-14
8.1752e+03 1.4096e-14
8.5371e+03 1.4120e-14
8.9151e+03 1.4147e-14
9.3098e+03 1.4177e-14
9.7220e+03 1.4210e-14
1.0152e+04 1.4247e-14
1.0602e+04 1.4288e-14
1.1071e+04 1.4334e-14
1.1561e+04 1.4386e-14
1.2073e+04 1.4445e-14
1.2608e+04 1.4511e-14
1.3166e+04 1.4586e-14
1.3749e+04 1.4671e-14
1.4358e+04 1.4768e-14
1.4993e+04 1.4881e-14
1.5657e+04 1.5010e-14
1.6350e+04 1.5161e-14
1.7074e+04 1.5339e-14
1.7830e+04 1.5550e-14
1.8620e+04 1.5802e-14
1.9444e+04 1.6110e-14
2.0305e+04 1.6490e-14
2.1204e+04 1.6973e-14
2.2143e+04 1.7605e-14
2.3123e+04 1.8467e-14
2.4147e+04 1.9722e-14
2.5216e+04 2.1750e-14
2.6332e+04 2.5754e-14
2.7498e+04 2.4921e-13
2.8715e+04 1.6030e-13
2.9987e+04 1.2580e-13
3.1314e+04 9.1825e-14
3.2701e+04 6.7869e-14
3.4148e+04 5.2498e-14
3.5660e+04 4.2010e-14
3.7239e+04 3.4307e-14
3.8888e+04 2.8358e-14
4.0610e+04 2.3623e-14
4.2408e+04 1.9790e-14
4.4285e+04 1.6654e-14
4.6246e+04 1.4070e-14
4.8293e+04 1.1930e-14
5.0431e+04 1.0150e-14
5.2664e+04 8.6639e-15
5.4996e+04 7.4174e-15
5.7431e+04 6.3681e-15
5.9973e+04 5.4816e-15
6.2629e+04 4.7297e-15
6.5401e+04 4.0898e-15
6.8297e+04 3.5433e-15
7.1321e+04 3.0751e-15
7.4478e+04 2.6728e-15
7.7776e+04 2.3263e-15
8.1219e+04 2.0269e-15
8.4815e+04 1.7678e-15
8.8570e+04 1.5431e-15
9.2492e+04 1.3480e-15
9.6587e+04 1.1782e-15
1.0086e+05 1.0303e-15
1.0533e+05 9.0145e-16
1.0999e+05 7.8901e-16
1.1486e+05 6.9085e-16
1.1995e+05 6.0510e-16
1.2526e+05 5.3016e-16
1.3080e+05 4.6463e-16
1.3659e+05 4.0731e-16
1.4264e+05 3.5716e-16
1.4896e+05 3.1325e-16
1.5555e+05 2.7480e-16
1.6244e+05 2.4111e-16
1.6963e+05 2.1159e-16
1.7714e+05 1.8572e-16
1.8498e+05 1.6303e-16
1.9317e+05 1.4313e-16
2.0173e+05 1.2567e-16
2.1066e+05 1.1035e-16
2.1998e+05 9.6901e-17
2.2972e+05 8.5099e-17
2.3989e+05 7.4739e-17
2.5051e+05 6.5644e-17
