# f(Hz)	 Electron noise power spectrum density (V^2/Hz)
4.0876e+03 1.0352e-14
4.2686e+03 1.0352e-14
4.4575e+03 1.0353e-14
4.6549e+03 1.0354e-14
4.8610e+03 1.0355e-14
5.0762e+03 1.0356e-14
5.3009e+03 1.0357e-14
5.5356e+03 1.0358e-14
5.7807e+03 1.0359e-14
6.0367e+03 1.0360e-14
6.3039e+03 1.0361e-14
6.5830e+03 1.0363e-14
6.8745e+03 1.0365e-14
7.1788e+03 1.0367e-14
7.4967e+03 1.0369e-14
7.8286e+03 1.0371e-14
8.1752e+03 1.0373e-14
8.5371e+03 1.0376e-14
8.9151e+03 1.0379e-14
9.3098e+03 1.0383e-14
9.7220e+03 1.0386e-14
1.0152e+04 1.0391e-14
1.0602e+04 1.0395e-14
1.1071e+04 1.0400e-14
1.1561e+04 1.0406e-14
1.2073e+04 1.0413e-14
1.2608e+04 1.0420e-14
1.3166e+04 1.0428e-14
1.3749e+04 1.0437e-14
1.4358e+04 1.0448e-14
1.4993e+04 1.0459e-14
1.5657e+04 1.0473e-14
1.6350e+04 1.0488e-14
1.7074e+04 1.0506e-14
1.7830e+04 1.0526e-14
1.8620e+04 1.0549e-14
1.9444e+04 1.0575e-14
2.0305e+04 1.0606e-14
2.1204e+04 1.0642e-14
2.2143e+04 1.0684e-14
2.3123e+04 1.0733e-14
2.4147e+04 1.0791e-14
2.5216e+04 1.0860e-14
2.6332e+04 1.0942e-14
2.7498e+04 1.1042e-14
2.8715e+04 1.1163e-14
2.9987e+04 1.1311e-14
3.1314e+04 1.1497e-14
3.2701e+04 1.1733e-14
3.4148e+04 1.2039e-14
3.5660e+04 1.2449e-14
3.7239e+04 1.3022e-14
3.8888e+04 1.3879e-14
4.0610e+04 1.5302e-14
4.2408e+04 1.8185e-14
4.4285e+04 2.7932e-14
4.6246e+04 4.4330e-13
4.8293e+04 3.0614e-13
5.0431e+04 1.4604e-13
5.2664e+04 7.4992e-14
5.4996e+04 4.7496e-14
5.7431e+04 3.3632e-14
5.9973e+04 2.5242e-14
6.2629e+04 1.9628e-14
6.5401e+04 1.5640e-14
6.8297e+04 1.2687e-14
7.1321e+04 1.0435e-14
7.4478e+04 8.6763e-15
7.7776e+04 7.2767e-15
8.1219e+04 6.1454e-15
8.4815e+04 5.2193e-15
8.8570e+04 4.4530e-15
9.2492e+04 3.8132e-15
9.6587e+04 3.2752e-15
1.0086e+05 2.8202e-15
1.0533e+05 2.4336e-15
1.0999e+05 2.1038e-15
1.1486e+05 1.8216e-15
1.1995e+05 1.5796e-15
1.2526e+05 1.3714e-15
1.3080e+05 1.1921e-15
1.3659e+05 1.0373e-15
1.4264e+05 9.0343e-16
1.4896e+05 7.8753e-16
1.5555e+05 6.8702e-16
1.6244e+05 5.9976e-16
1.6963e+05 5.2391e-16
1.7714e+05 4.5790e-16
1.8498e+05 4.0042e-16
1.9317e+05 3.5030e-16
2.0173e+05 3.0658e-16
2.1066e+05 2.6842e-16
2.1998e+05 2.3508e-16
2.2972e+05 2.0595e-16
2.3989e+05 1.8047e-16
2.5051e+05 1.5818e-16
