# f(Hz)	 Electron noise power spectrum density (V^2/Hz)
4.0876e+03 1.7489e-14
4.2686e+03 1.7492e-14
4.4575e+03 1.7494e-14
4.6549e+03 1.7497e-14
4.8610e+03 1.7500e-14
5.0762e+03 1.7503e-14
5.3009e+03 1.7506e-14
5.5356e+03 1.7510e-14
5.7807e+03 1.7514e-14
6.0367e+03 1.7519e-14
6.3039e+03 1.7524e-14
6.5830e+03 1.7529e-14
6.8745e+03 1.7535e-14
7.1788e+03 1.7542e-14
7.4967e+03 1.7549e-14
7.8286e+03 1.7557e-14
8.1752e+03 1.7565e-14
8.5371e+03 1.7575e-14
8.9151e+03 1.7585e-14
9.3098e+03 1.7596e-14
9.7220e+03 1.7609e-14
1.0152e+04 1.7623e-14
1.0602e+04 1.7638e-14
1.1071e+04 1.7654e-14
1.1561e+04 1.7673e-14
1.2073e+04 1.7693e-14
1.2608e+04 1.7715e-14
1.3166e+04 1.7740e-14
1.3749e+04 1.7767e-14
1.4358e+04 1.7798e-14
1.4993e+04 1.7831e-14
1.5657e+04 1.7869e-14
1.6350e+04 1.7911e-14
1.7074e+04 1.7957e-14
1.7830e+04 1.8010e-14
1.8620e+04 1.8068e-14
1.9444e+04 1.8134e-14
2.0305e+04 1.8209e-14
2.1204e+04 1.8294e-14
2.2143e+04 1.8390e-14
2.3123e+04 1.8500e-14
2.4147e+04 1.8626e-14
2.5216e+04 1.8772e-14
2.6332e+04 1.8940e-14
2.7498e+04 1.9138e-14
2.8715e+04 1.9371e-14
2.9987e+04 1.9648e-14
3.1314e+04 1.9982e-14
3.2701e+04 2.0391e-14
3.4148e+04 2.0900e-14
3.5660e+04 2.1552e-14
3.7239e+04 2.2416e-14
3.8888e+04 2.3622e-14
4.0610e+04 2.5457e-14
4.2408e+04 2.8765e-14
4.4285e+04 3.0281e-13
4.6246e+04 2.1105e-13
4.8293e+04 1.5706e-13
5.0431e+04 1.0929e-13
5.2664e+04 7.9844e-14
5.4996e+04 6.1465e-14
5.7431e+04 4.8763e-14
5.9973e+04 3.9351e-14
6.2629e+04 3.2110e-14
6.5401e+04 2.6421e-14
6.8297e+04 2.1895e-14
7.1321e+04 1.8260e-14
7.4478e+04 1.5317e-14
7.7776e+04 1.2917e-14
8.1219e+04 1.0946e-14
8.4815e+04 9.3160e-15
8.8570e+04 7.9599e-15
9.2492e+04 6.8249e-15
9.6587e+04 5.8696e-15
1.0086e+05 5.0616e-15
1.0533e+05 4.3750e-15
1.0999e+05 3.7891e-15
1.1486e+05 3.2873e-15
1.1995e+05 2.8561e-15
1.2526e+05 2.4846e-15
1.3080e+05 2.1637e-15
1.3659e+05 1.8860e-15
1.4264e+05 1.6452e-15
1.4896e+05 1.4362e-15
1.5555e+05 1.2545e-15
1.6244e+05 1.0964e-15
1.6963e+05 9.5877e-16
1.7714e+05 8.3878e-16
1.8498e+05 7.3412e-16
1.9317e+05 6.4277e-16
2.0173e+05 5.6299e-16
2.1066e+05 4.9327e-16
2.1998e+05 4.3231e-16
2.2972e+05 3.7899e-16
2.3989e+05 3.3231e-16
2.5051e+05 2.9145e-16
