# f(Hz)	 Electron noise power spectrum density (V^2/Hz)
4.0876e+03 1.1335e-14
4.2686e+03 1.1338e-14
4.4575e+03 1.1340e-14
4.6549e+03 1.1343e-14
4.8610e+03 1.1346e-14
5.0762e+03 1.1349e-14
5.3009e+03 1.1352e-14
5.5356e+03 1.1356e-14
5.7807e+03 1.1361e-14
6.0367e+03 1.1365e-14
6.3039e+03 1.1370e-14
6.5830e+03 1.1376e-14
6.8745e+03 1.1382e-14
7.1788e+03 1.1389e-14
7.4967e+03 1.1396e-14
7.8286e+03 1.1404e-14
8.1752e+03 1.1413e-14
8.5371e+03 1.1423e-14
8.9151e+03 1.1434e-14
9.3098e+03 1.1446e-14
9.7220e+03 1.1460e-14
1.0152e+04 1.1474e-14
1.0602e+04 1.1491e-14
1.1071e+04 1.1509e-14
1.1561e+04 1.1530e-14
1.2073e+04 1.1552e-14
1.2608e+04 1.1578e-14
1.3166e+04 1.1607e-14
1.3749e+04 1.1639e-14
1.4358e+04 1.1675e-14
1.4993e+04 1.1716e-14
1.5657e+04 1.1763e-14
1.6350e+04 1.1816e-14
1.7074e+04 1.1878e-14
1.7830e+04 1.1948e-14
1.8620e+04 1.2030e-14
1.9444e+04 1.2125e-14
2.0305e+04 1.2237e-14
2.1204e+04 1.2370e-14
2.2143e+04 1.2529e-14
2.3123e+04 1.2722e-14
2.4147e+04 1.2961e-14
2.5216e+04 1.3262e-14
2.6332e+04 1.3656e-14
2.7498e+04 1.4193e-14
2.8715e+04 1.4984e-14
2.9987e+04 1.6333e-14
3.1314e+04 1.9721e-14
3.2701e+04 3.3881e-13
3.4148e+04 2.0950e-13
3.5660e+04 1.0935e-13
3.7239e+04 6.3539e-14
3.8888e+04 4.5131e-14
4.0610e+04 3.4768e-14
4.2408e+04 2.7652e-14
4.4285e+04 2.2347e-14
4.6246e+04 1.8251e-14
4.8293e+04 1.5034e-14
5.0431e+04 1.2477e-14
5.2664e+04 1.0426e-14
5.4996e+04 8.7661e-15
5.7431e+04 7.4116e-15
5.9973e+04 6.2975e-15
6.2629e+04 5.3744e-15
6.5401e+04 4.6041e-15
6.8297e+04 3.9573e-15
7.1321e+04 3.4112e-15
7.4478e+04 2.9476e-15
7.7776e+04 2.5523e-15
8.1219e+04 2.2139e-15
8.4815e+04 1.9231e-15
8.8570e+04 1.6726e-15
9.2492e+04 1.4563e-15
9.6587e+04 1.2691e-15
1.0086e+05 1.1068e-15
1.0533e+05 9.6598e-16
1.0999e+05 8.4358e-16
1.1486e+05 7.3710e-16
1.1995e+05 6.4440e-16
1.2526e+05 5.6363e-16
1.3080e+05 4.9320e-16
1.3659e+05 4.3174e-16
1.4264e+05 3.7807e-16
1.4896e+05 3.3119e-16
1.5555e+05 2.9021e-16
1.6244e+05 2.5436e-16
1.6963e+05 2.2300e-16
1.7714e+05 1.9555e-16
1.8498e+05 1.7150e-16
1.9317e+05 1.5044e-16
2.0173e+05 1.3199e-16
2.1066e+05 1.1581e-16
2.1998e+05 1.0163e-16
2.2972e+05 8.9199e-17
2.3989e+05 7.8293e-17
2.5051e+05 6.8727e-17
