# f(Hz)	 Electron noise power spectrum density (V^2/Hz)
4.0876e+03 1.5138e-14
4.2686e+03 1.5146e-14
4.4575e+03 1.5155e-14
4.6549e+03 1.5165e-14
4.8610e+03 1.5175e-14
5.0762e+03 1.5187e-14
5.3009e+03 1.5200e-14
5.5356e+03 1.5214e-14
5.7807e+03 1.5229e-14
6.0367e+03 1.5246e-14
6.3039e+03 1.5265e-14
6.5830e+03 1.5286e-14
6.8745e+03 1.5309e-14
7.1788e+03 1.5334e-14
7.4967e+03 1.5362e-14
7.8286e+03 1.5393e-14
8.1752e+03 1.5427e-14
8.5371e+03 1.5466e-14
8.9151e+03 1.5509e-14
9.3098e+03 1.5557e-14
9.7220e+03 1.5610e-14
1.0152e+04 1.5671e-14
1.0602e+04 1.5738e-14
1.1071e+04 1.5815e-14
1.1561e+04 1.5903e-14
1.2073e+04 1.6002e-14
1.2608e+04 1.6116e-14
1.3166e+04 1.6248e-14
1.3749e+04 1.6401e-14
1.4358e+04 1.6580e-14
1.4993e+04 1.6792e-14
1.5657e+04 1.7047e-14
1.6350e+04 1.7356e-14
1.7074e+04 1.7740e-14
1.7830e+04 1.8230e-14
1.8620e+04 1.8874e-14
1.9444e+04 1.9767e-14
2.0305e+04 2.1102e-14
2.1204e+04 2.3366e-14
2.2143e+04 2.8369e-14
2.3123e+04 1.5074e-13
2.4147e+04 1.2395e-13
2.5216e+04 9.9523e-14
2.6332e+04 7.5287e-14
2.7498e+04 5.8462e-14
2.8715e+04 4.7350e-14
2.9987e+04 3.9444e-14
3.1314e+04 3.3373e-14
3.2701e+04 2.8469e-14
3.4148e+04 2.4391e-14
3.5660e+04 2.0946e-14
3.7239e+04 1.8012e-14
3.8888e+04 1.5505e-14
4.0610e+04 1.3358e-14
4.2408e+04 1.1519e-14
4.4285e+04 9.9429e-15
4.6246e+04 8.5918e-15
4.8293e+04 7.4330e-15
5.0431e+04 6.4384e-15
5.2664e+04 5.5841e-15
5.4996e+04 4.8493e-15
5.7431e+04 4.2165e-15
5.9973e+04 3.6707e-15
6.2629e+04 3.1992e-15
6.5401e+04 2.7912e-15
6.8297e+04 2.4376e-15
7.1321e+04 2.1306e-15
7.4478e+04 1.8637e-15
7.7776e+04 1.6313e-15
8.1219e+04 1.4287e-15
8.4815e+04 1.2518e-15
8.8570e+04 1.0972e-15
9.2492e+04 9.6205e-16
9.6587e+04 8.4374e-16
1.0086e+05 7.4013e-16
1.0533e+05 6.4936e-16
1.0999e+05 5.6980e-16
1.1486e+05 5.0005e-16
1.1995e+05 4.3889e-16
1.2526e+05 3.8525e-16
1.3080e+05 3.3821e-16
1.3659e+05 2.9694e-16
1.4264e+05 2.6074e-16
1.4896e+05 2.2898e-16
1.5555e+05 2.0110e-16
1.6244e+05 1.7664e-16
1.6963e+05 1.5516e-16
1.7714e+05 1.3631e-16
1.8498e+05 1.1975e-16
1.9317e+05 1.0521e-16
2.0173e+05 9.2445e-17
2.1066e+05 8.1229e-17
2.1998e+05 7.1375e-17
2.2972e+05 6.2718e-17
2.3989e+05 5.5112e-17
2.5051e+05 4.8429e-17
