# f(Hz)	 Electron noise power spectrum density (V^2/Hz)
4.0876e+03 1.5208e-14
4.2686e+03 1.5210e-14
4.4575e+03 1.5212e-14
4.6549e+03 1.5215e-14
4.8610e+03 1.5218e-14
5.0762e+03 1.5221e-14
5.3009e+03 1.5225e-14
5.5356e+03 1.5228e-14
5.7807e+03 1.5233e-14
6.0367e+03 1.5237e-14
6.3039e+03 1.5242e-14
6.5830e+03 1.5248e-14
6.8745e+03 1.5254e-14
7.1788e+03 1.5261e-14
7.4967e+03 1.5268e-14
7.8286e+03 1.5276e-14
8.1752e+03 1.5285e-14
8.5371e+03 1.5295e-14
8.9151e+03 1.5305e-14
9.3098e+03 1.5317e-14
9.7220e+03 1.5330e-14
1.0152e+04 1.5345e-14
1.0602e+04 1.5361e-14
1.1071e+04 1.5379e-14
1.1561e+04 1.5398e-14
1.2073e+04 1.5420e-14
1.2608e+04 1.5444e-14
1.3166e+04 1.5472e-14
1.3749e+04 1.5502e-14
1.4358e+04 1.5536e-14
1.4993e+04 1.5574e-14
1.5657e+04 1.5616e-14
1.6350e+04 1.5664e-14
1.7074e+04 1.5719e-14
1.7830e+04 1.5781e-14
1.8620e+04 1.5851e-14
1.9444e+04 1.5931e-14
2.0305e+04 1.6023e-14
2.1204e+04 1.6129e-14
2.2143e+04 1.6253e-14
2.3123e+04 1.6396e-14
2.4147e+04 1.6565e-14
2.5216e+04 1.6766e-14
2.6332e+04 1.7005e-14
2.7498e+04 1.7295e-14
2.8715e+04 1.7652e-14
2.9987e+04 1.8097e-14
3.1314e+04 1.8666e-14
3.2701e+04 1.9415e-14
3.4148e+04 2.0440e-14
3.5660e+04 2.1925e-14
3.7239e+04 2.4271e-14
3.8888e+04 2.8575e-14
4.0610e+04 3.9513e-14
4.2408e+04 2.8270e-13
4.4285e+04 2.3327e-13
4.6246e+04 1.6601e-13
4.8293e+04 1.1113e-13
5.0431e+04 7.8049e-14
5.2664e+04 5.7928e-14
5.4996e+04 4.4648e-14
5.7431e+04 3.5273e-14
5.9973e+04 2.8351e-14
6.2629e+04 2.3088e-14
6.5401e+04 1.9001e-14
6.8297e+04 1.5775e-14
7.1321e+04 1.3197e-14
7.4478e+04 1.1111e-14
7.7776e+04 9.4079e-15
8.1219e+04 8.0044e-15
8.4815e+04 6.8389e-15
8.8570e+04 5.8641e-15
9.2492e+04 5.0439e-15
9.6587e+04 4.3497e-15
1.0086e+05 3.7596e-15
1.0533e+05 3.2557e-15
1.0999e+05 2.8238e-15
1.1486e+05 2.4526e-15
1.1995e+05 2.1328e-15
1.2526e+05 1.8565e-15
1.3080e+05 1.6174e-15
1.3659e+05 1.4103e-15
1.4264e+05 1.2306e-15
1.4896e+05 1.0745e-15
1.5555e+05 9.3874e-16
1.6244e+05 8.2060e-16
1.6963e+05 7.1770e-16
1.7714e+05 6.2799e-16
1.8498e+05 5.4973e-16
1.9317e+05 4.8141e-16
2.0173e+05 4.2173e-16
2.1066e+05 3.6957e-16
2.1998e+05 3.2394e-16
2.2972e+05 2.8402e-16
2.3989e+05 2.4908e-16
2.5051e+05 2.1848e-16
